N/A,
-46.337
-44.510
-45.414
-44.535
-43.922
-43.185
-42.658
-42.262
-41.983
-41.551
-40.977
-40.667
-40.445
-39.997
-39.688
-39.410
-39.001
-38.505
-38.154
-37.853
-37.617
-37.362
-37.038
-36.768
-36.471
-36.154
-35.902
-35.580
-35.321
-35.037
-34.779
-34.534
-34.267
-34.030
-33.807
-33.534
-33.312
-33.055
-32.812
-32.564
-32.360
-32.136
-31.905
-31.683
-31.485
-31.283
-31.083
-30.885
-30.682
-30.480
-30.317
-30.118
-29.929
-29.741
-29.551
-29.380
-29.200
-29.039
-28.856
-28.701
-28.523
-28.365
-28.193
-28.034
-27.877
-27.714
-27.570
-27.427
-27.283
-27.134
-26.990
-26.851
-26.715
-26.572
-26.436
-26.297
-26.166
-26.042
-25.913
-25.794
-25.666
-25.547
-25.422
-25.303
-25.185
-25.076
-24.960
-24.842
-24.728
-24.621
-24.516
-24.409
-24.305
-24.202
-24.103
-24.005
-23.905
-23.808
-23.712
-23.609
-23.509
-23.415
-23.324
-23.231
-23.142
-23.045
-22.952
-22.860
-22.776
-22.693
-22.608
-22.518
-22.437
-22.354
-22.272
-22.191
-22.111
-22.034
-21.953
-21.873
-21.791
-21.716
-21.638
-21.565
-21.492
-21.419
-21.347
-21.276
-21.209
-21.140
-21.071
-21.002
-20.936
-20.869
-20.803
-20.739
-20.674
-20.608
-20.546
-20.484
-20.422
-20.360
-20.300
-20.239
-20.181
-20.124
-20.065
-20.008
-19.949
-19.894
-19.839
-19.782
-19.727
-19.672
-19.617
-19.564
-19.509
-19.456
-19.404
-19.351
-19.300
-19.250
-19.198
-19.149
-19.100
-19.051
-19.004
-18.955
-18.907
-18.858
-18.810
-18.764
-18.717
-18.671
-18.626
-18.579
-18.533
-18.489
-18.445
-18.400
-18.355
-18.311
-18.268
-18.225
-18.182
-18.139
-18.098
-18.056
-18.014
-17.974
-17.932
-17.891
-17.851
-17.812
-17.772
-17.732
-17.693
-17.654
-17.616
-17.577
-17.539
-17.501
-17.464
-17.427
-17.390
-17.353
-17.316
-17.279
-17.243
-17.207
-17.172
-17.136
-17.102
-17.067
-17.033
-16.998
-16.963
-16.930
-16.895
-16.862
-16.828
-16.796
-16.763
-16.730
-16.697
-16.665
-16.633
-16.601
-16.570
-16.538
-16.507
-16.475
-16.444
-16.413
-16.383
-16.352
-16.322
-16.292
-16.262
-16.233
-16.203
-16.174
-16.144
-16.116
-16.086
-16.058
-16.030
-16.001
-15.973
-15.945
-15.917
-15.889
-15.862
-15.835
-15.808
-15.781
-15.754
-15.727
-15.700
-15.673
-15.647
-15.621
-15.595
-15.569
-15.543
-15.518
-15.493
-15.467
-15.442
-15.417
-15.392
-15.367
-15.343
-15.318
-15.293
-15.269
-15.244
-15.220
-15.196
-15.172
-15.149
-15.125
-15.102
-15.078
-15.055
-15.032
-15.009
-14.987
-14.964
-14.941
-14.919
-14.897
-14.875
-14.852
-14.831
-14.809
-14.787
-14.766
-14.744
-14.723
-14.701
-14.680
-14.659
-14.638
-14.617
-14.597
-14.576
-14.556
-14.535
-14.515
-14.495
-14.475
-14.455
-14.435
-14.415
-14.395
-14.376
-14.356
-14.337
-14.317
-14.298
-14.279
-14.260
-14.241
-14.222
-14.203
-14.184
-14.166
-14.147
-14.129
-14.110
-14.092
-14.074
-14.056
-14.038
-14.020
-14.002
-13.985
-13.967
-13.949
-13.932
-13.915
-13.897
-13.880
-13.863
-13.846
-13.829
-13.812
-13.795
-13.778
-13.761
-13.745
-13.728
-13.712
-13.695
-13.679
-13.663
-13.647
-13.631
-13.615
-13.599
-13.583
-13.568
-13.552
-13.536
-13.521
-13.505
-13.490
-13.475
-13.459
-13.444
-13.429
-13.414
-13.399
-13.384
-13.369
-13.355
-13.340
-13.325
-13.311
-13.296
-13.282
-13.267
-13.253
-13.239
-13.225
-13.211
-13.197
-13.183
-13.169
-13.155
-13.141
-13.127
-13.114
-13.100
-13.087
-13.074
-13.060
-13.047
-13.033
-13.020
-13.007
-12.994
-12.981
-12.968
-12.955
-12.942
-12.930
-12.917
-12.904
-12.892
-12.879
-12.867
-12.854
-12.842
-12.829
-12.817
-12.805
-12.792
-12.780
-12.768
-12.756
-12.744
-12.732
-12.720
-12.709
-12.697
-12.685
-12.673
-12.662
-12.650
-12.639
-12.627
-12.616
-12.604
-12.593
-12.582
-12.571
-12.559
-12.548
-12.537
-12.526
-12.515
-12.504
-12.493
-12.482
-12.471
-12.461
-12.450
-12.439
-12.428
-12.418
-12.407
-12.397
-12.386
-12.376
-12.365
-12.355
-12.345
-12.334
-12.324
-12.314
-12.304
-12.293
-12.283
-12.273
-12.263
-12.253
-12.244
-12.234
-12.224
-12.214
-12.204
-12.194
-12.185
-12.175
-12.165
-12.156
-12.146
-12.137
-12.127
-12.118
-12.108
-12.099
-12.089
-12.080
-12.071
-12.061
-12.052
-12.043
-12.034
-12.025
-12.015
-12.006
-11.997
-11.988
-11.979
-11.970
-11.961
-11.729
-11.522
-11.323
-11.154
-10.990
-10.837
-10.690
-10.552
-10.423
-10.304
-10.189
-10.075
-9.972
-9.878
-9.782
-9.694
-9.613
-9.529
-9.444
-9.367
-9.295
-9.229
-9.166
-9.102
-9.042
-8.984
-8.926
-8.873
-8.818
-8.768
-8.718
-8.671
-8.626
-8.581
-8.539
-8.500
-8.457
-8.419
-8.380
-8.342
-8.304
-8.271
-8.236
-8.202
-8.168
-8.138
-8.108
-8.078
-8.049
-8.020
-7.991
-7.967
-7.939
-7.913
-7.887
-7.861
-7.837
-7.812
-7.790
-7.765
-7.744
-7.720
-7.699
-7.676
-7.654
-7.633
-7.611
-7.592
-7.573
-7.554
-7.535
-7.515
-7.497
-7.479
-7.460
-7.442
-7.423
-7.406
-7.390
-7.373
-7.357
-7.340
-7.325
-7.308
-7.293
-7.277
-7.263
-7.248
-7.232
-7.217
-7.203
-7.189
-7.175
-7.162
-7.148
-7.135
-7.123
-7.110
-7.097
-7.085
-7.071
-7.058
-7.045
-7.033
-7.021
-7.010
-6.996
-6.983
-6.971
-6.960
-6.949
-6.938
-6.925
-6.914
-6.903
-6.892
-6.881
-6.870
-6.860
-6.849
-6.837
-6.825
-6.815
-6.803
-6.793
-6.783
-6.773
-6.763
-6.753
-6.744
-6.734
-6.724
-6.714
-6.705
-6.696
-6.686
-6.678
-6.668
-6.658
-6.650
-6.641
-6.632
-6.623
-6.614
-6.606
-6.598
-6.590
-6.581
-6.573
-6.564
-6.557
-6.549
-6.541
-6.533
-6.525
-6.517
-6.509
-6.501
-6.493
-6.486
-6.478
-6.470
-6.463
-6.455
-6.448
-6.441
-6.434
-6.428
-6.420
-6.413
-6.405
-6.398
-6.392
-6.385
-6.378
-6.371
-6.364
-6.357
-6.350
-6.344
-6.337
-6.330
-6.323
-6.316
-6.310
-6.303
-6.296
-6.290
-6.283
-6.277
-6.270
-6.264
-6.257
-6.250
-6.245
-6.238
-6.231
-6.225
-6.219
-6.213
-6.206
-6.200
-6.194
-6.188
-6.182
-6.176
-6.169
-6.163
-6.157
-6.151
-6.145
-6.139
-6.133
-6.127
-6.121
-6.115
-6.109
-6.103
-6.098
-6.091
-6.085
-6.079
-6.074
-6.068
-6.062
-6.056
-6.050
-6.045
-6.039
-6.033
-6.028
-6.022
-6.016
-6.010
-6.004
-5.999
-5.993
-5.987
-5.981
-5.976
-5.971
-5.965
-5.959
-5.953
-5.948
-5.942
-5.936
-5.931
-5.925
-5.919
-5.914
-5.908
-5.903
-5.897
-5.892
-5.887
-5.881
-5.875
-5.870
-5.864
-5.858
-5.853
-5.847
-5.842
-5.836
-5.831
-5.826
-5.820
-5.814
-5.809
-5.803
-5.798
-5.792
-5.787
-5.781
-5.776
-5.770
-5.765
-5.759
-5.753
-5.748
-5.742
-5.737
-5.732
-5.726
-5.720
-5.715
-5.710
-5.705
-5.699
-5.694
-5.688
-5.683
-5.678
-5.672
-5.667
-5.662
-5.656
-5.651
-5.645
-5.640
-5.635
-5.629
-5.624
-5.619
-5.613
-5.608
-5.603
-5.597
-5.592
-5.587
-5.582
-5.576
-5.571
-5.566
-5.561
-5.555
-5.550
-5.545
-5.540
-5.534
-5.529
-5.524
-5.519
-5.513
-5.508
-5.503
-5.498
-5.492
-5.487
-5.482
-5.477
-5.472
-5.466
-5.461
-5.456
-5.451
-5.446
-5.441
-5.436
-5.430
-5.425
-5.420
-5.415
-5.410
-5.405
-5.400
-5.395
-5.389
-5.384
-5.379
-5.374
-5.369
-5.364
-5.359
-5.354
-5.349
-5.344
-5.339
-5.334
-5.329
-5.324
-5.319
-5.314
-5.310
-5.305
-5.300
-5.295
-5.290
-5.285
-5.280
-5.276
-5.271
-5.266
-5.261
-5.256
-5.251
-5.247
-5.242
-5.237
-5.232
-5.228
-5.223
-5.218
-5.214
-5.209
-5.204
-5.200
-5.195
-5.191
-5.186
-5.181
-5.177
-5.172
-5.168
-5.163
-5.159
-5.154
-5.150
-5.145
-5.141
-5.137
-5.132
-5.128
-5.124
-5.119
-5.115
-5.111
-5.106
-5.102
-5.098
-5.094
-5.089
-5.085
-5.081
-5.077
-5.073
-5.069
-5.064
-5.060
-5.056
-5.052
-5.048
-5.044
-5.040
-5.036
-5.032
-5.028
-5.024
-5.020
-5.016
-5.013
-5.009
-5.005
-5.001
-4.997
-4.993
-4.990
-4.986
-4.982
-4.978
-4.975
-4.971
-4.967
-4.964
-4.960
-4.957
-4.953
-4.949
-4.946
-4.942
-4.939
-4.935
-4.932
-4.928
-4.925
-4.922
-4.918
-4.915
-4.911
-4.908
-4.905
-4.901
-4.898
-4.895
-4.892
-4.888
-4.885
-4.882
-4.879
-4.876
-4.873
-4.870
-4.867
-4.864
-4.861
-4.858
-4.855
-4.852
-4.849
-4.846
-4.843
-4.840
-4.837
-4.834
-4.831
-4.828
-4.825
-4.823
-4.820
-4.817
-4.814
-4.812
-4.809
-4.806
-4.803
-4.801
-4.798
-4.796
-4.793
-4.791
-4.788
-4.785
-4.783
-4.780
-4.778
-4.775
-4.773
-4.770
-4.768
-4.766
-4.763
-4.761
-4.759
-4.756
-4.754
-4.752
-4.749
-4.747
-4.745
-4.743
-4.741
-4.739
-4.736
-4.734
-4.732
-4.730
-4.728
-4.726
-4.724
-4.722
-4.720
-4.718
-4.716
-4.714
-4.712
-4.710
-4.708
-4.706
-4.704
-4.703
-4.701
-4.699
-4.697
-4.695
-4.694
-4.692
-4.690
-4.688
-4.686
-4.685
-4.683
-4.681
-4.680
-4.678
-4.676
-4.675
-4.673
-4.671
-4.670
-4.668
-4.667
-4.665
-4.663
-4.662
-4.660
-4.659
-4.658
-4.656
-4.655
-4.653
-4.652
-4.650
-4.649
-4.648
-4.646
-4.645
-4.644
-4.642
-4.641
-4.640
-4.638
-4.637
-4.636
-4.635
-4.633
-4.632
-4.631
-4.630
-4.629
-4.627
-4.626
-4.625
-4.624
-4.623
-4.622
-4.621
-4.619
-4.618
-4.617
-4.616
-4.615
-4.614
-4.613
-4.612
-4.611
-4.610
-4.609
-4.608
-4.607
-4.606
-4.605
-4.604
-4.603
-4.602
-4.601
-4.600
-4.599
-4.598
-4.597
-4.596
-4.595
-4.595
-4.594
-4.593
-4.592
-4.591
-4.590
-4.589
-4.588
-4.588
-4.587
-4.586
-4.585
-4.584
-4.583
-4.583
-4.582
-4.581
-4.580
-4.580
-4.579
-4.578
-4.577
-4.576
-4.576
-4.575
-4.574
-4.574
-4.573
-4.572
-4.571
-4.571
-4.570
-4.569
-4.569
-4.568
-4.567
-4.567
-4.566
-4.565
-4.565
-4.564
-4.564
-4.563
-4.562
-4.562
-4.561
-4.561
-4.560
-4.559
-4.559
-4.558
-4.558
-4.557
-4.556
-4.556
-4.555
-4.555
-4.554
-4.554
-4.553
-4.553
-4.552
-4.552
-4.551
-4.551
-4.550
-4.550
-4.549
-4.549
-4.548
-4.548
-4.547
-4.547
-4.546
-4.546
-4.545
-4.545
-4.544
-4.544
-4.543
-4.543
-4.543
-4.542
-4.542
-4.541
-4.541
-4.540
-4.540
-4.540
-4.539
-4.539
-4.538
-4.538
-4.538
-4.537
-4.537
-4.537
-4.536
-4.536
-4.535
-4.535
-4.535
-4.534
-4.534
-4.534
-4.533
-4.533
-4.533
-4.532
-4.532
-4.532
-4.531
-4.531
-4.531
-4.530
-4.530
-4.530
-4.529
-4.529
-4.529
-4.528
-4.528
-4.528
-4.527
-4.527
-4.527
-4.526
-4.526
-4.526
-4.526
-4.525
-4.525
-4.525
-4.524
-4.524
-4.524
-4.524
-4.523
-4.523
-4.523
-4.522
-4.522
-4.522
-4.522
-4.521
-4.521
-4.521
-4.521
-4.520
-4.520
-4.520
-4.520
-4.519
-4.519
-4.519
-4.519
-4.518
-4.518
-4.518
-4.518
-4.517
-4.517
-4.517
-4.517
-4.516
-4.516
-4.516
-4.516
-4.516
-4.515
-4.515
-4.515
-4.515
-4.515
-4.514
-4.514
-4.514
-4.514
-4.514
-4.513
-4.513
-4.513
-4.513
-4.513
-4.512
-4.512
-4.512
-4.512
-4.512
-4.511
-4.511
-4.511
-4.511
-4.511
-4.510
-4.510
-4.510
-4.510
-4.510
-4.510
-4.509
-4.509
-4.509
-4.509
-4.509
-4.509
-4.508
-4.508
-4.508
-4.508
-4.508
-4.508
-4.507
-4.507
-4.507
-4.507
-4.507
-4.507
-4.506
-4.506
-4.506
-4.506
-4.506
-4.506
-4.505
-4.505
-4.505
-4.505
-4.505
-4.505
-4.505
-4.504
-4.504
-4.504
-4.504
-4.504
-4.504
-4.504
-4.503
-4.503
-4.503
-4.503
-4.503
-4.503
-4.503
-4.503
-4.502
-4.502
-4.502
-4.502
-4.502
-4.502
-4.502
-4.502
-4.501
-4.501
-4.501
-4.501
-4.501
-4.501
-4.501
-4.501
-4.500
-4.500
-4.500
-4.500
-4.500
-4.500
-4.500
-4.500
-4.499
-4.499
-4.499
-4.499
-4.499
-4.499
-4.499
-4.499
-4.499
-4.498
-4.498
-4.498
-4.498
-4.498
-4.498
-4.498
-4.498
-4.498
-4.497
-4.497
-4.497
-4.497
-4.497
-4.497
-4.497
-4.497
-4.497
-4.497
-4.496
-4.496
-4.496
-4.496
-4.496
-4.496
-4.496
-4.496
-4.496
-4.496
-4.495
-4.495
-4.495
-4.495
-4.495
-4.495
-4.495
-4.495
-4.495
-4.495
-4.494
-4.494
-4.494
-4.494
-4.494
-4.494
-4.494
-4.494
-4.494
-4.494
-4.494
-4.493
-4.493
-4.493
-4.493
-4.493
-4.493
-4.493
-4.493
-4.493
-4.493
-4.493
-4.493
-4.492
-4.492
-4.492
-4.492
-4.492
-4.492
-4.492
-4.492
-4.492
-4.492
-4.492
-4.492
-4.491
-4.491
-4.491
-4.491
-4.491
-4.491
-4.491
-4.491
-4.491
-4.491
-4.491
-4.491
-4.491
-4.490
-4.490
-4.490
-4.490
-4.490
-4.490
-4.490
-4.490
-4.490
-4.490
-4.490
-4.490
-4.490
-4.490
-4.489
-4.489
-4.489
-4.489
-4.489
-4.489
-4.489
-4.489
-4.489
-4.489
-4.489
-4.489
-4.489
-4.489
-4.488
-4.488
-4.488
-4.488
-4.488
-4.488
-4.488
-4.488
-4.488
-4.488
-4.488
-4.488
-4.488
-4.488
-4.488
-4.488
-4.487
-4.487
-4.487
-4.487
-4.487
-4.487
-4.487
-4.487
-4.487
-4.487
-4.487
-4.487
-4.487
-4.487
-4.487
-4.487
-4.487
-4.486
-4.486
-4.486
-4.486
-4.486
-4.486
-4.486
-4.486
-4.486
-4.486
-4.486
-4.486
-4.486
-4.486
-4.486
-4.486
-4.486
-4.485
-4.485
-4.485
-4.485
-4.485
-4.485
-4.485
-4.485
-4.485
-4.485
-4.485
-4.485
-4.485
-4.485
-4.485
-4.485
-4.485
-4.485
-4.485
-4.485
-4.484
-4.484
-4.484
-4.484
-4.484
-4.484
-4.484
-4.484
-4.484
-4.484
-4.484
-4.484
-4.484
-4.484
-4.484
-4.484
-4.484
-4.484
-4.484
-4.484
-4.483
-4.483
-4.483
-4.483
-4.483
-4.483
-4.483
-4.483
-4.483
-4.483
-4.483
-4.483
-4.483
-4.483
-4.483
-4.483
-4.483
-4.483
-4.483
-4.483
-4.483
-4.482
-4.482
-4.482
-4.482
-4.482
-4.482
-4.482
-4.482
-4.482
-4.482
-4.482
-4.482
-4.482
-4.482
-4.482
-4.482
-4.482
-4.482
-4.482
-4.482
-4.482
-4.482
-4.482
-4.481
-4.481
-4.481
-4.481
-4.481
-4.481
-4.481
-4.481
-4.481
-4.481
-4.481
-4.481
-4.481
-4.481
-4.481
-4.481
-4.481
-4.481
-4.481
-4.481
-4.481
-4.481
-4.481
-4.481
-4.481
-4.481
-4.481
-4.480
-4.480
-4.480
-4.480
-4.480
-4.480
-4.480
-4.480
-4.480
-4.480
-4.480
-4.480
-4.480
-4.480
-4.480
-4.480
-4.480
-4.480
-4.480
-4.480
-4.480
-4.480
-4.480
-4.480
-4.480
-4.480
-4.480
-4.479
-4.479
-4.479
-4.479
-4.479
-4.479
-4.479
-4.479
-4.479
-4.479
-4.479
-4.479
-4.479
-4.479
-4.479
-4.479
-4.479
-4.479
-4.479
-4.479
-4.479
-4.479
-4.479
-4.479
-4.479
-4.479
-4.479
-4.479
-4.479
-4.479
-4.479
-4.479
-4.478
-4.478
-4.478
-4.478
-4.478
-4.478
-4.478
-4.478
-4.478
-4.478
-4.478
-4.478
-4.478
-4.478
-4.478
-4.478
-4.478
-4.478
-4.478
-4.478
-4.478
-4.478
-4.478
-4.478
-4.478
-4.478
-4.478
-4.478
-4.478
-4.478
-4.478
-4.478
-4.478
-4.478
-4.478
-4.478
-4.478
-4.478
-4.477
-4.477
-4.477
-4.477
-4.477
-4.477
-4.477
-4.477
-4.477
-4.477
-4.477
-4.477
-4.477
-4.477
-4.477
-4.477
-4.477
-4.477
-4.477
-4.477
-4.477
-4.477
-4.477
-4.477
-4.477
-4.477
-4.477
-4.477
-4.477
-4.477
-4.477
-4.477
-4.477
-4.477
-4.477
-4.477
-4.477
-4.477
-4.477
-4.476
-4.476
-4.476
-4.476
-4.476
-4.476
-4.476
-4.476
-4.476
-4.476
-4.476
-4.476
-4.476
-4.476
-4.476
-4.476
-4.476
-4.476
-4.476
-4.476
-4.476
-4.476
-4.476
-4.476
-4.476
-4.476
-4.476
-4.476
-4.476
-4.476
-4.476
-4.476
-4.476
-4.476
-4.476
-4.476
-4.476
-4.476
-4.476
-4.476
-4.476
-4.476
-4.476
-4.476
-4.476
-4.476
-4.476
-4.475
-4.475
-4.475
-4.475
-4.475
-4.475
-4.475
-4.475
-4.475
-4.475
-4.475
-4.475
-4.475
-4.475
-4.475
-4.475
-4.475
-4.475
-4.475
-4.475
-4.475
-4.475
-4.475
-4.475
-4.475
-4.475
-4.475
-4.475
-4.475
-4.475
-4.475
-4.475
-4.475
-4.475
-4.475
-4.475
-4.475
-4.475
-4.475
-4.475
-4.475
-4.475
-4.475
-4.475
-4.475
-4.475
-4.475
-4.475
-4.475
-4.475
-4.475
-4.475
-4.475
-4.475
-4.475
-4.475
-4.475
-4.474
-4.474
-4.474
-4.474
-4.474
-4.474
-4.474
-4.474
-4.474
-4.474
-4.474
-4.474
-4.474
-4.474
-4.474
-4.474
-4.474
-4.474
-4.474
-4.474
-4.474
-4.474
-4.474
-4.474
-4.474
-4.474
-4.474
-4.474
-4.474
-4.474
-4.474
-4.474
-4.474
-4.474
-4.474
-4.474
-4.474
-4.474
-4.474
-4.474
-4.474
-4.474
-4.474
-4.474
-4.474
-4.474
-4.474
-4.474
-4.474
-4.474
-4.474
-4.474
-4.474
-4.474
-4.474
-4.474
-4.474
-4.474
-4.474
-4.474
-4.474
-4.474
-4.474
-4.474
-4.474
-4.474
-4.474
-4.474
-4.473
-4.473
-4.473
-4.473
-4.473
-4.473
-4.473
-4.473
-4.473
-4.473
-4.473
-4.473
-4.473
-4.473
-4.473
-4.473
-4.473
-4.473
-4.473
-4.473
-4.473
-4.473
-4.473
-4.473
-4.473
-4.473
-4.473
-4.473
-4.473
-4.473
-4.473
-4.473
-4.473
-4.473
-4.473
-4.473
-4.473
-4.473
-4.473
-4.473
-4.473
-4.473
-4.473
-4.473
-4.473
-4.473
-4.473
-4.473
-4.473
-4.473
-4.473
-4.473
-4.473
-4.473
-4.473
-4.473
-4.473
-4.473
-4.473
-4.473
-4.473
-4.473
-4.473
-4.473
-4.473
-4.473
-4.473
-4.473
-4.473
-4.473
-4.473
-4.473
-4.473
-4.473
-4.473
-4.473
-4.473
-4.473
-4.473
-4.473
-4.473
-4.473
-4.473
-4.473
-4.473
-4.473
-4.473
-4.473
-4.473
-4.473
-4.473
-4.473
-4.473
-4.473
-4.473
-4.473
-4.473
-4.473
-4.472
-4.472
-4.472
-4.472
-4.472
-4.472
-4.472
-4.472
-4.472
-4.472
-4.472
-4.472
-4.472
-4.472
-4.472
-4.472
-4.472
-4.472
-4.472
-4.472
-4.472
-4.472
-4.472
-4.472
-4.472
-4.472
-4.472
-4.472
-4.472
-4.472
-4.472
-4.472
-4.472
-4.472
-4.472
-4.472
-4.472
-4.472
-4.472
-4.472
-4.472
-4.472
-4.472
-4.472
-4.472
-4.472
-4.472
-4.472
-4.472
-4.472
-4.472
-4.472
-4.472
-4.472
-4.472
-4.472
-4.472
-4.472
-4.472
-4.472
-4.472
-4.472
-4.472
-4.472
-4.472
-4.472
-4.472
-4.472
-4.472
-4.472
-4.472
-4.472
-4.472
-4.472
-4.472
-4.472
-4.472
-4.472
-4.472
-4.472
-4.472
-4.472
-4.472
-4.472
-4.472
-4.472
-4.472
-4.472
-4.472
-4.472
-4.472
-4.472
-4.472
-4.472
-4.472
-4.472
-4.472
-4.472
-4.472
-4.472
-4.472
-4.472
-4.472
-4.472
-4.472
-4.472
-4.472
-4.472
-4.472
-4.472
-4.472
-4.472
-4.472
-4.472
-4.472
-4.472
-4.472
-4.472
-4.472
-4.472
-4.472
-4.472
-4.472
-4.472
-4.471
-4.471
-4.471
-4.471
-4.471
-4.471
-4.471
-4.471
-4.471
-4.471
-4.471
-4.471
-4.471
-4.471
-4.471
-4.471
-4.471
-4.471
-4.471
-4.471
-4.471
-4.471
-4.471
-4.471
-4.471
-4.471
-4.471
-4.471
-4.471
-4.471
-4.471
-4.471
-4.471
-4.471
-4.471
-4.471
-4.471
-4.471
-4.471
-4.471
-4.471
-4.471
-4.471
-4.471
-4.471
-4.471
-4.471
-4.471
-4.471
-4.471
-4.471
-4.471
-4.471
-4.471
-4.471
-4.471
-4.471
-4.471
-4.471
-4.471
-4.471
-4.471
-4.471
-4.471
-4.471
-4.471
-4.471
-4.471
-4.471
-4.471
-4.471
-4.471
-4.471
-4.471
-4.471
-4.471
-4.471
-4.471
-4.471
-4.471
-4.471
-4.471
-4.471
-4.471
-4.471
-4.471
-4.471
-4.471
-4.471
-4.471
-4.471
-4.471
-4.471
-4.471
-4.471
-4.471
-4.471
-4.471
-4.471
-4.471
-4.471
-4.471
-4.471
-4.471
-4.471
-4.471
-4.471
-4.471
-4.471
-4.471
-4.471
-4.471
-4.471
-4.471
-4.471
-4.471
-4.471
-4.471
-4.471
-4.471
-4.471
-4.471
-4.471
-4.471
-4.471
-4.471
-4.471
-4.471
-4.471
-4.471
-4.471
-4.471
-4.471
-4.471
-4.471
-4.471
-4.471
-4.471
-4.471
-4.471
-4.471
-4.471
-4.471
-4.471
-4.471
-4.471
-4.471
-4.471
-4.471
-4.471
-4.471
-4.471
-4.471
-4.471
-4.471
-4.471
-4.471
-4.471
-4.471
-4.471
-4.471
-4.471
-4.471
-4.471
-4.471
-4.471
-4.471
-4.471
-4.471
-4.471
-4.471
-4.471
-4.471
-4.471
-4.471
-4.471
-4.471
-4.471
-4.471
-4.471
-4.471
-4.471
-4.471
-4.471
-4.471
-4.471
-4.471
-4.471
-4.471
-4.471
-4.471
-4.471
-4.471
-4.471
-4.471
-4.471
-4.471
-4.471
-4.471
-4.471
-4.471
-4.471
-4.471
-4.471
-4.471
-4.471
-4.471
-4.471
-4.471
-4.471
-4.471
-4.471
-4.471
-4.471
-4.471
-4.471
-4.471
-4.471
-4.471
-4.471
-4.471
-4.471
-4.471
-4.471
-4.471
-4.471
-4.471
-4.471
-4.471
-4.471
-4.471
-4.471
-4.471
-4.471
-4.471
-4.471
-4.471
-4.471
-4.471
-4.471
-4.471
-4.471
-4.471
-4.471
-4.471
-4.471
-4.471
-4.470
-4.470
-4.470
-4.470
-4.470
-4.470
-4.470
-4.470
-4.470
-4.470
-4.470
-4.470
-4.470
-4.470
-4.470
-4.470
-4.470
-4.470
-4.470
-4.470
-4.470
-4.470
-4.470
-4.470
-4.470
-4.470
-4.470
-4.470
-4.470
-4.470
-4.470
-4.470
-4.470
-4.470
-4.470
-4.470
-4.470
-4.470
-4.470
-4.470
-4.470
-4.470
-4.470
-4.470
-4.470
-4.470
-4.470
-4.470
-4.470
-4.470
-4.470
-4.470
-4.470
-4.470
-4.470
-4.470
-4.470
-4.470
-4.470
-4.470
-4.470
-4.470
-4.470
-4.470
-4.470
-4.470
-4.470
-4.470
-4.470
-4.470
-4.470
-4.470
-4.470
-4.470
-4.470
-4.470
-4.470
-4.470
-4.470
-4.470
-4.470
-4.470
-4.470
-4.470
-4.470
-4.470
-4.470
-4.470
-4.470
-4.470
-4.470
-4.470
-4.470
-4.470
-4.470
-4.470
-4.470
-4.470
-4.470
-4.470
-4.470
-4.470
-4.470
-4.470
-4.470
-4.470
-4.470
-4.470
-4.470
-4.470
-4.470
-4.470
-4.470
-4.470
-4.470
-4.470
-4.470
-4.470
-4.470
-4.470
-4.470
-4.470
-4.470
-4.470
-4.470
-4.470
-4.470
-4.470
-4.470
-4.470
-4.470
-4.470
-4.470
-4.470
-4.470
-4.470
-4.470
-4.470
-4.470
-4.470
-4.470
-4.470
-4.470
-4.470
-4.470
-4.470
-4.470
-4.470
-4.470
-4.470
-4.470
-4.470
-4.470
-4.470
-4.470
-4.470
-4.470
-4.470
-4.470
-4.470
-4.470
-4.470
-4.470
-4.470
-4.470
-4.470
-4.470
-4.470
-4.470
-4.470
-4.470
-4.470
-4.470
-4.470
-4.470
-4.470
-4.470
-4.470
-4.470
-4.470
-4.470
-4.470
-4.470
-4.470
-4.470
-4.470
-4.470
-4.470
-4.470
-4.470
-4.470
-4.470
-4.470
-4.470
-4.470
-4.470
-4.470
-4.470
-4.470
-4.470
-4.470
-4.470
-4.470
-4.470
-4.470
-4.470
-4.470
-4.470
-4.470
-4.470
-4.470
-4.470
-4.470
-4.470
-4.470
-4.470
-4.470
-4.470
-4.470
-4.470
-4.470
-4.470
-4.470
-4.470
-4.470
-4.470
-4.470
-4.470
-4.470
-4.470
-4.470
-4.470
-4.470
-4.470
-4.470
-4.470
-4.470
-4.470
-4.470
-4.470
-4.470
-4.470
-4.470
-4.470
-4.470
-4.470
-4.470
-4.470
-4.470
-4.470
-4.470
-4.470
-4.470
-4.470
-4.470
-4.470
-4.470
-4.470
-4.470
-4.470
-4.470
-4.470
-4.470
-4.470
-4.470
-4.470
-4.470
-4.470
-4.470
-4.470
-4.470
-4.470
-4.470
-4.470
-4.470
-4.470
-4.470
-4.470
-4.470
-4.470
-4.470
-4.470
-4.470
-4.470
-4.470
-4.470
-4.470
-4.470
-4.470
-4.470
-4.470
-4.470
-4.470
-4.470
-4.470
-4.470
-4.470
-4.469
-4.469
-4.469
-4.469
-4.469
-4.469
-4.469
-4.469
-4.469
-4.469
-4.469
-4.469
-4.469
-4.469
-4.469
-4.469
-4.469
-4.469
-4.469
-4.469
-4.469
-4.469
-4.469
-4.469
-4.469
-4.469
-4.469
-4.469
-4.469
-4.469
-4.469
-4.469
-4.469
-4.469
-4.469
-4.469
-4.469
-4.469
-4.469
-4.469
-4.469
-4.469
-4.469
-4.469
-4.469
-4.469
-4.469
-4.469
-4.469
-4.469
-4.469
-4.469
-4.469
-4.469
-4.469
-4.469
-4.469
-4.469
-4.469
-4.469
-4.469
-4.469
-4.469
-4.469
-4.469
-4.469
-4.469
-4.469
-4.469
-4.469
-4.469
-4.469
-4.469
-4.469
-4.469
-4.469
-4.469
-4.469
-4.469
-4.469
-4.469
-4.469
-4.469
-4.469
-4.469
-4.469
-4.469
-4.469
-4.469
-4.469
-4.469
-4.469
-4.469
-4.469
-4.469
-4.469
-4.469
-4.469
-4.469
-4.469
-4.469
-4.469
-4.469
-4.469
-4.469
-4.469
-4.469
-4.469
-4.469
-4.469
-4.469
-4.469
-4.469
-4.469
-4.469
-4.469
-4.469
-4.469
-4.469
-4.469
-4.469
-4.469
-4.469
-4.469
-4.469
-4.469
-4.469
-4.469
-4.469
-4.469
-4.469
-4.469
-4.469
-4.469
-4.469
-4.469
-4.469
-4.469
-4.469
-4.469
-4.469
-4.469
-4.469
-4.469
-4.469
-4.469
-4.469
-4.469
-4.469
-4.469
-4.469
-4.469
-4.469
-4.469
-4.469
-4.469
-4.469
-4.469
-4.469
-4.469
-4.469
-4.469
-4.469
-4.469
-4.469
-4.469
-4.469
-4.469
-4.469
-4.469
-4.469
-4.469
-4.469
-4.469
-4.469
-4.469
-4.469
-4.469
-4.469
-4.469
-4.469
-4.469
-4.469
-4.469
-4.469
-4.469
-4.469
-4.469
-4.469
-4.469
-4.469
-4.469
-4.469
-4.469
-4.469
-4.469
-4.469
-4.469
-4.469
-4.469
-4.469
-4.469
-4.469
-4.469
-4.469
-4.469
-4.469
-4.469
-4.469
-4.469
-4.469
-4.469
-4.469
-4.469
-4.469
-4.469
-4.469
-4.469
-4.469
-4.469
-4.469
-4.469
-4.469
-4.469
-4.469
-4.469
-4.469
-4.469
-4.469
-4.469
-4.469
-4.469
-4.469
-4.469
-4.469
-4.469
-4.469
-4.469
-4.469
-4.469
-4.469
-4.469
-4.469
-4.469
-4.469
-4.469
-4.469
-4.469
-4.468
-4.468
-4.468
-4.468
-4.468
-4.468
-4.468
-4.468
-4.468
-4.468
-4.468
-4.468
-4.468
-4.468
-4.468
-4.468
-4.468
-4.468
-4.468
-4.468
-4.468
-4.468
-4.468
-4.468
-4.468
-4.468
-4.468
-4.468
-4.468
-4.468
-4.468
-4.468
-4.468
-4.468
-4.468
-4.468
-4.468
-4.468
-4.468
-4.468
-4.468
-4.468
-4.468
-4.468
-4.468
-4.468
-4.468
-4.468
-4.468
-4.468
-4.468
-4.468
-4.468
-4.468
-4.468
-4.468
-4.468
-4.468
-4.468
-4.468
-4.468
-4.468
-4.468
-4.468
-4.468
-4.468
-4.468
-4.468
-4.468
-4.468
-4.468
-4.468
-4.468
-4.468
-4.468
-4.468
-4.468
-4.468
-4.468
-4.468
-4.468
-4.468
-4.468
-4.468
-4.468
-4.468
-4.468
-4.468
-4.468
-4.468
-4.468
-4.468
-4.468
-4.468
-4.468
-4.468
-4.468
-4.468
-4.468
-4.468
-4.468
-4.468
-4.468
-4.468
-4.468
-4.468
-4.468
-4.468
-4.468
-4.468
-4.468
-4.468
-4.468
-4.468
-4.468
-4.468
-4.468
-4.468
-4.468
-4.468
-4.468
-4.468
-4.468
-4.468
-4.468
-4.468
-4.468
-4.468
-4.468
-4.468
-4.468
-4.468
-4.468
-4.468
-4.468
-4.468
-4.468
-4.468
-4.468
-4.468
-4.468
-4.468
-4.468
-4.468
-4.468
-4.468
-4.468
-4.468
-4.468
-4.468
-4.468
-4.468
-4.468
-4.468
-4.468
-4.468
-4.468
-4.468
-4.468
-4.468
-4.468
-4.468
-4.468
-4.468
-4.468
-4.468
-4.468
-4.468
-4.468
-4.468
-4.468
-4.468
-4.468
-4.468
-4.468
-4.468
-4.468
-4.468
-4.468
-4.468
-4.468
-4.468
-4.468
-4.468
-4.468
-4.468
-4.468
-4.468
-4.468
-4.468
-4.468
-4.468
-4.468
-4.468
-4.468
-4.468
-4.468
-4.468
-4.468
-4.468
-4.468
-4.468
-4.468
-4.468
-4.468
-4.468
-4.468
-4.468
-4.468
-4.468
-4.468
-4.468
-4.468
-4.468
-4.468
-4.468
-4.468
-4.468
-4.468
-4.468
-4.468
-4.468
-4.468
-4.468
-4.468
-4.468
-4.468
-4.468
-4.468
-4.468
-4.468
-4.468
-4.468
-4.468
-4.468
-4.468
-4.468
-4.468
-4.468
-4.468
-4.468
-4.468
-4.468
-4.468
-4.468
-4.468
-4.468
-4.468
-4.468
-4.468
-4.468
-4.468
-4.468
-4.468
-4.468
-4.468
-4.468
-4.468
-4.468
-4.468
-4.468
-4.468
-4.468
-4.468
-4.468
-4.468
-4.468
-4.468
-4.468
-4.468
-4.468
-4.468
-4.468
-4.468
-4.468
-4.468
-4.468
-4.468
-4.468
-4.468
-4.468
-4.468
-4.468
-4.468
-4.468
-4.468
-4.468
-4.468
-4.468
-4.468
-4.468
-4.468
-4.468
-4.468
-4.468
-4.468
-4.468
-4.468
-4.468
-4.468
-4.468
-4.468
-4.468
-4.468
-4.468
-4.468
-4.468
-4.468
-4.468
-4.468
-4.468
-4.468
-4.468
-4.468
-4.468
-4.468
-4.468
-4.468
-4.468
-4.468
-4.468
-4.468
-4.468
-4.468
-4.468
-4.468
-4.468
-4.468
-4.468
-4.468
-4.468
-4.468
-4.468
-4.468
-4.468
-4.468
-4.468
-4.468
-4.468
-4.468
-4.468
-4.468
-4.468
-4.468
-4.468
-4.468
-4.468
-4.468
-4.468
-4.468
-4.468
-4.468
-4.468
-4.468
-4.468
-4.468
-4.468
-4.468
-4.468
-4.468
-4.468
-4.468
-4.468
-4.468
-4.468
-4.468
-4.468
-4.468
-4.468
-4.468
-4.468
-4.468
-4.468
-4.468
-4.468
-4.468
-4.468
-4.468
-4.468
-4.468
-4.468
-4.468
-4.468
-4.468
-4.468
-4.468
-4.468
-4.468
-4.468
-4.468
-4.468
-4.468
-4.468
-4.468
-4.468
-4.468
-4.468
-4.468
-4.468
-4.468
-4.468
-4.468
-4.468
-4.468
-4.468
-4.468
-4.468
-4.468
-4.468
-4.468
-4.468
-4.468
-4.468
-4.468
-4.468
-4.468
-4.468
-4.468
-4.468
-4.468
-4.468
-4.468
-4.468
-4.468
-4.468
-4.468
-4.468
-4.468
-4.468
-4.468
-4.468
-4.468
-4.468
-4.468
-4.468
-4.468
-4.468
-4.468
-4.468
-4.468
-4.468
-4.468
-4.468
-4.468
-4.468
-4.468
-4.468
-4.468
-4.468
-4.468
-4.468
-4.468
-4.468
-4.468
-4.468
-4.468
-4.468
-4.468
-4.468
-4.468
-4.468
-4.468
-4.468
-4.468
-4.468
-4.468
-4.468
-4.468
-4.468
-4.468
-4.468
-4.468
-4.468
-4.468
-4.468
-4.468
-4.468
-4.468
-4.468
-4.468
-4.468
-4.468
-4.468
-4.468
-4.468
-4.468
-4.468
-4.468
-4.468
-4.468
-4.468
-4.468
-4.468
-4.468
-4.468
-4.468
-4.468
-4.468
-4.468
-4.468
-4.468
-4.468
-4.468
-4.468
-4.468
-4.468
-4.468
-4.468
-4.468
-4.468
-4.468
-4.468
-4.468
-4.468
-4.468
-4.468
-4.468
-4.468
-4.468
-4.468
-4.468
-4.468
-4.468
-4.468
-4.468
-4.468
-4.468
-4.468
-4.468
-4.468
-4.468
-4.468
-4.468
-4.468
-4.468
-4.468
-4.468
-4.468
-4.468
-4.468
-4.468
-4.468
-4.468
-4.468
-4.468
-4.468
-4.468
-4.468
-4.468
-4.468
-4.468
-4.468
-4.468
-4.468
-4.468
-4.468
-4.468
-4.468
-4.468
-4.468
-4.468
-4.468
-4.468
-4.468
-4.468
-4.468
-4.468
-4.468
-4.468
-4.468
-4.468
-4.468
-4.468
-4.468
-4.468
-4.468
-4.468
-4.468
-4.468
-4.468
-4.468
-4.468
-4.468
-4.468
-4.468
-4.468
-4.468
-4.468
-4.468
-4.468
-4.468
-4.468
-4.468
-4.468
-4.468
-4.468
-4.468
-4.468
-4.468
-4.468
-4.468
-4.468
-4.468
-4.468
-4.468
-4.468
-4.468
-4.468
-4.468
-4.468
-4.468
-4.468
-4.468
-4.468
-4.468
-4.468
-4.468
-4.468
-4.468
-4.468
-4.468
-4.468
-4.468
-4.468
-4.468
-4.468
-4.468
-4.468
-4.468
-4.468
-4.468
-4.468
-4.468
-4.468
-4.468
-4.468
-4.468
-4.468
-4.468
-4.468
-4.468
-4.468
-4.468
-4.468
-4.468
-4.468
-4.468
-4.468
-4.468
-4.468
-4.468
-4.468
-4.468
-4.468
-4.468
-4.468
-4.468
-4.468
-4.468
-4.468
-4.468
-4.468
-4.468
-4.468
-4.468
-4.468
-4.468
-4.468
-4.468
-4.468
-4.468
-4.468
-4.468
-4.468
-4.468
-4.468
-4.468
-4.468
-4.468
-4.468
-4.468
-4.468
-4.468
-4.468
-4.468
-4.468
-4.468
-4.468
-4.468
-4.468
-4.468
-4.468
-4.468
-4.468
-4.468
-4.468
-4.468
-4.468
-4.468
-4.468
-4.468
-4.468
-4.468
-4.468
-4.468
-4.468
-4.468
-4.468
-4.468
-4.468
-4.468
-4.468
-4.468
-4.468
-4.468
-4.468
-4.468
-4.468
-4.468
-4.468
-4.468
-4.468
-4.468
-4.468
-4.468
-4.468
-4.468
-4.468
-4.468
-4.468
-4.468
-4.468
-4.468
-4.468
-4.468
-4.468
-4.468
-4.468
-4.468
-4.468
-4.468
-4.468
-4.468
-4.468
-4.468
-4.468
-4.468
-4.468
-4.468
-4.468
-4.468
-4.468
-4.468
-4.468
-4.468
-4.468
-4.468
-4.468
-4.468
-4.468
-4.468
-4.468
-4.468
-4.468
-4.468
-4.468
-4.468
-4.468
-4.468
-4.468
-4.468
-4.468
-4.468
-4.468
-4.468
-4.468
-4.468
-4.468
-4.468
-4.468
-4.468
-4.468
-4.468
-4.468
-4.468
-4.468
-4.468
-4.468
-4.468
-4.468
-4.468
-4.468
-4.468
-4.468
-4.468
-4.468
-4.468
-4.468
-4.468
-4.468
-4.468
-4.468
-4.468
-4.468
-4.468
-4.468
-4.468
-4.468
-4.468
-4.468
-4.468
-4.468
-4.468
-4.468
-4.468
-4.468
-4.468
-4.468
-4.468
-4.468
-4.468
-4.468
-4.468
-4.468
-4.468
-4.468
-4.468
-4.468
-4.468
-4.468
-4.468
-4.468
-4.468
-4.468
-4.468
-4.468
-4.468
-4.468
-4.468
-4.468
-4.468
-4.468
-4.468
-4.468
-4.468
-4.468
-4.468
-4.468
-4.468
-4.468
-4.468
-4.468
-4.468
-4.468
-4.468
-4.468
-4.468
-4.468
-4.468
-4.468
-4.468
-4.468
-4.468
-4.468
-4.468
-4.468
-4.468
-4.468
-4.468
-4.468
-4.468
-4.468
-4.468
-4.468
-4.468
-4.468
-4.468
-4.468
-4.468
-4.468
-4.468
-4.468
-4.468
-4.468
-4.468
-4.468
-4.468
-4.468
-4.468
-4.468
-4.468
-4.468
-4.468
-4.468
-4.468
-4.468
-4.468
-4.468
-4.468
-4.468
-4.468
-4.468
-4.468
-4.468
-4.468
-4.468
-4.468
-4.468
-4.468
-4.468
-4.468
-4.468
-4.468
-4.468
-4.468
-4.468
-4.468
-4.468
-4.468
-4.468
-4.468
-4.468
-4.468
-4.468
-4.468
-4.468
-4.468
-4.468
-4.468
-4.468
-4.468
-4.468
-4.468
-4.468
-4.468
-4.468
-4.468
-4.468
-4.468
-4.468
-4.468
-4.468
-4.468
-4.468
-4.468
-4.468
-4.468
-4.468
-4.468
-4.468
-4.468
-4.468
-4.468
-4.468
-4.468
-4.468
-4.468
-4.468
-4.468
-4.468
-4.468
-4.468
-4.468
-4.468
-4.468
-4.468
-4.468
-4.468
-4.468
-4.468
-4.468
-4.468
-4.468
-4.468
-4.468
-4.468
-4.468
-4.468
-4.468
-4.468
-4.468
-4.468
-4.468
-4.468
-4.468
-4.468
-4.468
-4.468
-4.468
-4.468
-4.468
-4.468
-4.468
-4.468
-4.468
-4.468
-4.468
-4.468
-4.468
-4.468
-4.468
-4.468
-4.468
-4.468
-4.468
-4.468
-4.468
-4.468
-4.468
-4.468
-4.468
-4.468
-4.468
-4.468
-4.468
-4.468
-4.468
-4.468
-4.468
-4.468
-4.468
-4.468
-4.468
-4.468
-4.468
-4.468
-4.468
-4.468
-4.468
-4.468
-4.468
-4.468
-4.468
-4.468
-4.468
-4.468
-4.468
-4.468
-4.468
-4.468
-4.468
-4.468
-4.468
-4.468
-4.468
-4.468
-4.468
-4.468
-4.468
-4.468
-4.468
-4.468
-4.468
-4.468
-4.468
-4.468
-4.468
-4.468
-4.468
-4.468
-4.468
-4.468
-4.468
-4.468
-4.468
-4.468
-4.468
-4.468
-4.468
-4.468
-4.468
-4.468
-4.468
-4.468
-4.468
-4.468
-4.468
-4.468
-4.468
-4.468
-4.468
-4.468
-4.468
-4.468
-4.468
-4.468
-4.468
-4.468
-4.468
-4.468
-4.468
-4.468
-4.468
-4.468
-4.468
-4.468
-4.468
-4.468
-4.468
-4.468
-4.468
-4.468
-4.468
-4.468
-4.468
-4.468
-4.468
-4.468
-4.468
-4.468
-4.468
-4.468
-4.468
-4.468
-4.468
-4.468
-4.468
-4.468
-4.468
-4.468
-4.468
-4.468
-4.468
-4.468
-4.468
-4.468
-4.468
-4.468
-4.468
-4.468
-4.468
-4.468
-4.468
-4.468
-4.468
-4.468
-4.468
-4.468
-4.468
-4.468
-4.468
-4.468
-4.468
-4.468
-4.468
-4.468
-4.468
-4.468
-4.468
-4.468
-4.468
-4.468
-4.468
-4.468
-4.468
-4.468
-4.468
-4.468
-4.468
-4.468
-4.468
-4.468
-4.468
-4.468
-4.468
-4.468
-4.468
-4.468
-4.468
-4.468
-4.468
-4.468
-4.468
-4.468
-4.468
-4.468
-4.468
-4.468
-4.468
-4.468
-4.468
-4.468
-4.468
-4.468
-4.468
-4.468
-4.468
-4.468
-4.468
-4.468
-4.468
-4.468
-4.468
-4.468
-4.468
-4.468
-4.468
-4.468
-4.468
-4.468
-4.468
-4.468
-4.468
-4.468
-4.468
-4.468
-4.468
-4.468
-4.468
-4.468
-4.468
-4.468
-4.468
-4.468
-4.468
-4.468
-4.468
-4.468
-4.468
-4.468
-4.468
-4.468
-4.468
-4.468
-4.468
-4.468
-4.468
-4.468
-4.468
-4.468
-4.468
-4.468
-4.468
-4.468
-4.468
-4.468
-4.468
-4.468
-4.468
-4.468
-4.468
-4.468
-4.468
-4.468
-4.468
-4.468
-4.468
-4.468
-4.468
-4.468
-4.468
-4.468
-4.468
-4.468
-4.468
-4.468
-4.468
-4.468
-4.468
-4.468
-4.468
-4.468
-4.468
-4.468
-4.468
-4.468
-4.468
-4.468
-4.468
-4.468
-4.468
-4.468
-4.468
-4.468
-4.468
-4.468
-4.468
-4.468
-4.468
-4.468
-4.468
-4.468
-4.468
-4.468
-4.468
-4.468
-4.468
-4.468
-4.468
-4.468
-4.468
-4.468
-4.468
-4.468
-4.468
-4.468
-4.468
-4.468
-4.468
-4.468
-4.468
-4.468
-4.468
-4.468
-4.468
-4.468
-4.468
-4.468
-4.468
-4.468
-4.468
-4.468
-4.468
-4.468
-4.468
-4.468
-4.468
-4.468
-4.468
-4.468
-4.468
-4.468
-4.468
-4.468
-4.468
-4.468
-4.468
-4.468
-4.468
-4.468
-4.468
-4.468
-4.468
-4.468
-4.468
-4.468
-4.468
-4.468
-4.468
-4.468
-4.468
-4.468
-4.468
-4.468
-4.468
-4.468
-4.468
-4.468
-4.468
-4.468
-4.468
-4.468
-4.468
-4.468
-4.468
-4.468
-4.468
-4.468
-4.468
-4.468
-4.468
-4.468
-4.468
-4.468
-4.468
-4.468
-4.468
-4.468
-4.468
-4.468
-4.468
-4.468
-4.468
-4.468
-4.468
-4.468
-4.468
-4.468
-4.468
-4.468
-4.468
-4.468
-4.468
-4.468
-4.468
-4.468
-4.468
-4.468
-4.468
-4.468
-4.468
-4.468
-4.468
-4.468
-4.468
-4.468
-4.468
-4.468
-4.468
-4.468
-4.468
-4.468
-4.468
-4.468
-4.468
-4.468
-4.468
-4.468
-4.468
-4.468
-4.468
-4.468
-4.468
-4.468
-4.468
-4.468
-4.468
-4.468
-4.468
-4.468
-4.468
-4.468
-4.468
-4.468
-4.468
-4.468
-4.468
-4.468
-4.468
-4.468
-4.468
-4.468
-4.468
-4.468
-4.468
-4.468
-4.468
-4.468
-4.468
-4.468
-4.468
-4.468
-4.468
-4.468
-4.468
-4.468
-4.468
-4.468
-4.468
-4.468
-4.468
-4.468
-4.468
-4.468
-4.468
-4.468
-4.468
-4.468
-4.468
-4.468
-4.468
-4.468
-4.468
-4.468
-4.468
-4.468
-4.468
-4.468
-4.468
-4.468
-4.468
-4.468
-4.468
-4.468
-4.468
-4.468
-4.468
-4.468
-4.468
-4.468
-4.468
-4.468
-4.468
-4.468
-4.468
-4.468
-4.468
-4.468
-4.468
-4.468
-4.468
-4.468
-4.468
-4.468
-4.468
-4.468
-4.468
-4.468
-4.468
-4.468
-4.468
-4.468
-4.468
-4.468
-4.468
-4.468
-4.468
-4.468
-4.468
-4.468
-4.468
-4.468
-4.468
-4.468
-4.468
-4.468
-4.468
-4.468
-4.468
-4.468
-4.468
-4.468
-4.468
-4.468
-4.468
-4.468
-4.468
-4.468
-4.468
-4.468
-4.468
-4.468
-4.468
-4.468
-4.468
-4.468
-4.468
-4.468
-4.468
-4.468
-4.468
-4.468
-4.468
-4.468
-4.468
-4.468
-4.468
-4.468
-4.468
-4.468
-4.468
-4.468
-4.468
-4.468
-4.468
-4.468
-4.468
-4.468
-4.468
-4.468
-4.468
-4.468
-4.468
-4.468
-4.468
-4.468
-4.468
-4.468
-4.468
-4.468
-4.468
-4.468
-4.468
-4.468
-4.468
-4.468
-4.468
-4.468
-4.468
-4.468
-4.468
-4.468
-4.468
-4.468
-4.468
-4.468
-4.468
-4.468
-4.468
-4.468
-4.468
-4.468
-4.468
-4.468
-4.468
-4.468
-4.468
-4.468
-4.468
-4.468
-4.468
-4.468
-4.468
-4.468
-4.468
-4.468
-4.468
-4.468
-4.468
-4.468
-4.468
-4.468
-4.468
-4.468
-4.468
-4.468
-4.468
-4.468
-4.468
-4.468
-4.468
-4.468
-4.468
-4.468
-4.468
-4.468
-4.468
-4.468
-4.468
-4.468
-4.468
-4.468
-4.468
-4.468
-4.468
-4.468
-4.468
-4.468
-4.468
-4.468
-4.468
-4.468
-4.468
-4.468
-4.468
-4.468
-4.468
-4.468
-4.468
-4.468
-4.468
-4.468
-4.468
-4.468
-4.468
-4.468
-4.468
-4.468
-4.468
-4.468
-4.468
-4.468
-4.468
-4.468
-4.468
-4.468
-4.468
-4.468
-4.468
-4.468
-4.468
-4.468
-4.468
-4.468
-4.468
-4.468
-4.468
-4.468
-4.468
-4.468
-4.468
-4.468
-4.468
-4.468
-4.468
-4.468
-4.468
-4.468
-4.468
-4.468
-4.468
-4.468
-4.468
-4.468
-4.468
-4.468
-4.468
-4.468
-4.468
-4.468
-4.468
-4.468
-4.468
-4.468
-4.468
-4.468
-4.468
-4.468
-4.468
-4.468
-4.468
-4.468
-4.468
-4.468
-4.468
-4.468
-4.468
-4.468
-4.468
-4.468
-4.468
-4.468
-4.468
-4.468
-4.468
-4.468
-4.468
-4.468
-4.468
-4.468
-4.468
-4.468
-4.468
-4.468
-4.468
-4.468
-4.468
-4.468
-4.468
-4.468
-4.468
-4.468
-4.468
-4.468
-4.468
-4.468
-4.468
-4.468
-4.468
-4.468
-4.468
-4.468
-4.468
-4.468
-4.468
-4.468
-4.468
-4.468
-4.468
-4.468
-4.468
-4.468
-4.468
-4.468
-4.468
-4.468
-4.468
-4.468
-4.468
-4.468
-4.468
-4.468
-4.468
-4.468
-4.468
-4.468
-4.468
-4.468
-4.468
-4.468
-4.468
-4.468
-4.468
-4.468
-4.468
-4.468
-4.468
-4.468
-4.468
-4.468
-4.468
-4.468
-4.468
-4.468
-4.468
-4.468
-4.468
-4.468
-4.468
-4.468
-4.468
-4.468
-4.468
-4.468
-4.468
-4.468
-4.468
-4.468
-4.468
-4.468
-4.468
-4.468
-4.468
-4.468
-4.468
-4.468
-4.468
-4.468
-4.468
-4.468
-4.468
-4.468
-4.468
-4.468
-4.468
-4.468
-4.468
-4.468
-4.468
-4.468
-4.468
-4.468
-4.468
-4.468
-4.468
-4.468
-4.468
-4.468
-4.468
-4.468
-4.468
-4.468
-4.468
-4.468
-4.468
-4.468
-4.468
-4.468
-4.468
-4.468
-4.468
-4.468
-4.468
-4.468
-4.468
-4.468
-4.468
-4.468
-4.468
-4.468
-4.468
-4.468
-4.468
-4.468
-4.468
-4.468
-4.468
-4.468
-4.468
-4.468
-4.468
-4.468
-4.468
-4.468
-4.468
-4.468
-4.468
-4.468
-4.468
-4.468
-4.468
-4.468
-4.468
-4.468
-4.468
-4.468
-4.468
-4.468
-4.468
-4.468
-4.468
-4.468
-4.468
-4.468
-4.468
-4.468
-4.468
-4.468
-4.468
-4.468
-4.468
-4.468
-4.468
-4.468
-4.468
-4.468
-4.468
-4.468
-4.468
-4.468
-4.468
-4.468
-4.468
-4.468
-4.468
-4.468
-4.468
-4.468
-4.468
-4.468
-4.468
-4.468
-4.468
-4.468
-4.468
-4.468
-4.468
-4.468
-4.468
-4.468
-4.468
-4.468
-4.468
-4.468
-4.468
-4.468
-4.468
-4.468
-4.468
-4.468
-4.468
-4.468
-4.468
-4.468
-4.468
-4.468
-4.468
-4.468
-4.468
-4.468
-4.468
-4.468
-4.468
-4.468
-4.468
-4.468
-4.468
-4.468
-4.468
-4.468
-4.468
-4.468
-4.468
-4.468
-4.468
-4.468
-4.468
-4.468
-4.468
-4.468
-4.468
-4.468
-4.468
-4.468
-4.468
-4.468
-4.468
-4.468
-4.468
-4.468
-4.468
-4.468
-4.468
-4.468
-4.468
-4.468
-4.468
-4.468
-4.468
-4.468
-4.468
-4.468
-4.468
-4.468
-4.468
-4.468
-4.468
-4.468
-4.468
-4.468
-4.468
N/A,
-4.392
-4.391
-4.391
-4.391
-4.391
-4.391
-4.391
-4.391
-4.391
-4.391
-4.391
-4.391
-4.391
-4.391
-4.391
-4.391
-4.391
-4.391
-4.391
-4.391
-4.391
-4.391
-4.391
-4.391
-4.391
-4.391
-4.391
-4.391
-4.391
-4.391
-4.391
-4.391
-4.391
-4.391
-4.391
-4.391
-4.391
-4.391
-4.391
-4.391
-4.391
-4.391
-4.391
-4.391
-4.391
-4.391
-4.391
-4.391
-4.391
-4.391
-4.391
-4.391
-4.391
-4.391
-4.391
-4.391
-4.391
-4.391
-4.391
-4.391
-4.391
-4.391
-4.391
-4.391
-4.391
-4.391
-4.391
-4.391
-4.391
-4.391
-4.391
-4.391
-4.391
-4.391
-4.391
-4.391
-4.391
-4.391
-4.390
-4.390
-4.390
-4.390
-4.390
-4.390
-4.390
-4.390
-4.390
-4.390
-4.390
-4.390
-4.390
-4.390
-4.390
-4.390
-4.390
-4.390
-4.390
-4.390
-4.390
-4.390
-4.390
-4.390
-4.390
-4.390
-4.390
-4.390
-4.390
-4.390
-4.390
-4.390
-4.390
-4.390
-4.390
-4.390
-4.390
-4.390
-4.390
-4.390
-4.390
-4.390
-4.390
-4.390
-4.390
-4.390
-4.390
-4.390
-4.390
-4.390
-4.390
-4.390
-4.390
-4.390
-4.390
-4.390
-4.390
-4.390
-4.390
-4.390
-4.390
-4.390
-4.390
-4.390
-4.390
-4.390
-4.390
-4.390
-4.390
-4.390
-4.390
-4.390
-4.390
-4.390
-4.390
-4.390
-4.390
-4.390
-4.390
-4.390
-4.390
-4.390
-4.390
-4.390
-4.390
-4.390
-4.390
-4.390
-4.390
-4.390
-4.390
-4.390
-4.390
-4.390
-4.390
-4.390
-4.390
-4.390
-4.390
-4.390
-4.390
-4.390
-4.390
-4.390
-4.390
-4.390
-4.390
-4.390
-4.390
-4.390
-4.390
-4.390
-4.390
-4.390
-4.390
-4.390
-4.390
-4.390
-4.390
-4.390
-4.390
-4.390
-4.390
-4.390
-4.390
-4.390
-4.390
-4.390
-4.390
-4.390
-4.390
-4.390
-4.390
-4.390
-4.390
-4.390
-4.390
-4.390
-4.390
-4.390
-4.390
-4.390
-4.390
-4.390
-4.390
-4.390
-4.390
-4.390
-4.390
-4.390
-4.390
-4.390
-4.390
-4.390
-4.390
-4.390
-4.390
-4.390
-4.390
-4.390
-4.390
-4.390
-4.390
-4.390
-4.390
-4.390
-4.390
-4.390
-4.390
-4.390
-4.390
-4.390
-4.390
-4.390
-4.390
-4.390
-4.390
-4.390
-4.390
-4.390
-4.390
-4.390
-4.390
-4.390
-4.390
-4.390
-4.390
-4.390
-4.390
-4.390
-4.390
-4.390
-4.390
-4.390
-4.390
-4.390
-4.390
-4.390
-4.390
-4.390
-4.390
-4.390
-4.390
-4.390
-4.390
-4.390
-4.390
-4.390
-4.390
-4.390
-4.390
-4.390
-4.390
-4.390
-4.390
-4.390
-4.390
-4.390
-4.390
-4.390
-4.390
-4.390
-4.390
-4.390
-4.390
-4.390
-4.390
-4.390
-4.390
-4.390
-4.390
-4.390
-4.390
-4.390
-4.390
-4.390
-4.390
-4.390
-4.390
-4.390
-4.390
-4.390
-4.390
-4.390
-4.390
-4.390
-4.390
-4.390
-4.390
-4.390
-4.390
-4.390
-4.390
-4.390
-4.390
-4.390
-4.390
-4.390
-4.390
-4.390
-4.390
-4.390
-4.390
-4.390
-4.390
-4.390
-4.390
-4.390
-4.390
-4.390
-4.390
-4.390
-4.390
-4.390
-4.390
-4.390
-4.390
-4.390
-4.390
-4.390
-4.390
-4.390
-4.390
-4.390
-4.390
-4.390
-4.390
-4.390
-4.390
-4.390
-4.390
-4.390
-4.390
-4.390
-4.390
-4.390
-4.390
-4.390
-4.390
-4.390
-4.390
-4.390
-4.390
-4.390
-4.390
-4.390
-4.390
-4.390
-4.390
-4.390
-4.390
-4.390
-4.390
-4.390
-4.390
-4.390
-4.390
-4.390
-4.390
-4.390
-4.390
-4.390
-4.390
-4.390
-4.390
-4.390
-4.390
-4.390
-4.390
-4.390
-4.390
-4.390
-4.390
-4.390
-4.390
-4.390
-4.390
-4.390
-4.390
-4.390
-4.390
-4.390
-4.390
-4.390
-4.390
-4.390
-4.390
-4.390
-4.390
-4.390
-4.390
-4.390
-4.390
-4.390
-4.390
-4.390
-4.390
-4.390
-4.390
-4.390
-4.390
-4.390
-4.390
-4.390
-4.390
-4.390
-4.390
-4.390
-4.390
-4.390
-4.390
-4.390
-4.390
-4.390
-4.390
-4.390
-4.390
-4.390
-4.390
-4.390
-4.390
-4.390
-4.390
-4.390
-4.390
-4.390
-4.390
-4.390
-4.390
-4.390
-4.390
-4.390
-4.390
-4.390
-4.390
-4.390
-4.390
-4.390
-4.390
-4.390
-4.390
-4.390
-4.390
-4.390
-4.390
-4.390
-4.390
-4.390
-4.390
-4.390
-4.390
-4.390
-4.390
-4.390
-4.390
-4.390
-4.390
-4.390
-4.390
-4.390
-4.390
-4.390
-4.390
-4.390
-4.390
-4.390
-4.390
-4.390
-4.390
-4.390
-4.390
-4.390
-4.390
-4.390
-4.390
-4.390
-4.390
-4.390
-4.390
-4.390
-4.390
-4.390
-4.390
-4.390
-4.390
-4.390
-4.390
-4.390
-4.390
-4.390
-4.390
-4.390
-4.390
-4.390
-4.390
-4.390
-4.390
-4.390
-4.390
-4.390
-4.390
-4.390
-4.390
-4.390
-4.390
-4.390
-4.390
-4.390
-4.390
-4.390
-4.390
-4.390
-4.390
-4.390
-4.390
-4.390
-4.390
-4.390
-4.390
-4.390
-4.390
-4.390
-4.390
-4.390
-4.390
-4.390
-4.390
-4.390
-4.390
-4.390
-4.390
-4.390
-4.390
-4.390
-4.390
-4.390
-4.390
-4.390
-4.390
-4.390
-4.390
-4.390
-4.390
-4.390
-4.390
-4.390
-4.390
-4.390
-4.390
-4.390
-4.390
-4.390
-4.390
-4.390
-4.390
-4.390
-4.390
-4.390
-4.390
-4.390
-4.390
-4.390
-4.390
-4.390
-4.390
-4.390
-4.390
-4.390
-4.390
-4.390
-4.390
-4.390
-4.390
-4.390
-4.390
-4.390
-4.390
-4.390
-4.390
-4.390
-4.390
-4.390
-4.390
-4.390
-4.390
-4.390
-4.390
-4.390
-4.390
-4.390
-4.390
-4.390
-4.390
-4.390
-4.390
-4.390
-4.390
-4.390
-4.390
-4.390
-4.390
-4.390
-4.390
-4.390
-4.390
-4.390
-4.390
-4.390
-4.390
-4.390
-4.390
-4.390
-4.390
-4.390
-4.390
-4.390
-4.390
-4.390
-4.390
-4.390
-4.390
-4.390
-4.390
-4.390
-4.390
-4.390
-4.390
-4.390
-4.390
-4.390
-4.390
-4.390
-4.390
-4.390
-4.390
-4.390
-4.390
-4.390
-4.390
-4.390
-4.390
-4.390
-4.390
-4.390
-4.390
-4.390
-4.390
-4.390
-4.390
-4.390
-4.390
-4.390
-4.390
-4.390
-4.390
-4.390
-4.390
-4.390
-4.390
-4.390
-4.390
-4.390
-4.390
-4.390
-4.390
-4.390
-4.390
-4.390
-4.390
-4.390
-4.390
-4.390
-4.390
-4.390
-4.390
-4.390
-4.390
-4.390
-4.390
-4.390
-4.390
-4.390
-4.390
-4.390
-4.390
-4.390
-4.390
-4.390
-4.390
-4.390
-4.390
-4.390
-4.390
-4.390
-4.390
-4.390
-4.390
-4.390
-4.390
-4.390
-4.390
-4.390
-4.390
-4.390
-4.390
-4.390
-4.390
-4.390
-4.390
-4.390
-4.390
-4.390
-4.390
-4.390
-4.390
-4.390
-4.390
-4.390
-4.390
-4.390
-4.390
-4.390
-4.390
-4.390
-4.390
-4.390
-4.390
-4.390
-4.390
-4.390
-4.390
-4.390
-4.390
-4.390
-4.390
-4.390
-4.390
-4.390
-4.390
-4.390
-4.390
-4.390
-4.390
-4.390
-4.390
-4.390
-4.390
-4.390
-4.390
-4.390
-4.390
-4.390
-4.390
-4.390
-4.390
-4.390
-4.390
-4.390
-4.390
-4.390
-4.390
-4.390
-4.390
-4.390
-4.390
-4.390
-4.390
-4.390
-4.390
-4.390
-4.390
-4.390
-4.390
-4.390
-4.390
-4.390
-4.390
-4.390
-4.390
-4.390
-4.390
-4.390
-4.390
-4.390
-4.390
-4.390
-4.390
-4.390
-4.390
-4.390
-4.390
-4.390
-4.390
-4.390
-4.390
-4.390
-4.390
-4.390
-4.390
-4.390
-4.390
-4.390
-4.390
-4.390
-4.390
-4.390
-4.390
-4.390
-4.390
-4.390
-4.390
-4.390
-4.390
-4.390
-4.390
-4.390
-4.390
-4.390
-4.390
-4.390
-4.390
-4.390
-4.390
-4.390
-4.390
-4.390
-4.390
-4.390
-4.390
-4.390
-4.390
-4.390
-4.390
-4.390
-4.390
-4.390
-4.390
-4.390
-4.390
-4.390
-4.390
-4.390
-4.390
-4.390
-4.390
-4.390
-4.390
-4.390
-4.390
-4.390
-4.390
-4.390
-4.390
-4.390
-4.390
-4.390
-4.390
-4.390
-4.390
-4.390
-4.390
-4.390
-4.390
-4.390
-4.390
-4.390
-4.390
-4.390
-4.390
-4.390
-4.390
-4.390
-4.390
-4.390
-4.390
-4.390
-4.390
-4.390
-4.390
-4.390
-4.390
-4.390
-4.390
-4.390
-4.390
-4.390
-4.390
-4.390
-4.390
-4.390
-4.390
-4.390
-4.390
-4.390
-4.390
-4.390
-4.390
-4.390
-4.390
-4.390
-4.390
-4.390
-4.390
-4.390
-4.390
-4.390
-4.390
-4.390
-4.390
-4.390
-4.390
-4.390
-4.390
-4.390
-4.390
-4.390
-4.390
-4.390
-4.390
-4.390
-4.390
-4.390
-4.390
-4.390
-4.390
-4.390
-4.390
-4.390
-4.390
-4.390
-4.390
-4.390
-4.390
-4.390
-4.390
-4.390
-4.390
-4.390
-4.390
-4.390
-4.390
-4.390
-4.390
-4.390
-4.390
-4.390
-4.390
-4.390
-4.390
-4.390
-4.390
-4.390
-4.390
-4.390
-4.390
-4.390
-4.390
-4.390
-4.390
-4.390
-4.390
-4.390
-4.390
-4.390
-4.390
-4.390
-4.390
-4.390
-4.390
-4.390
-4.390
-4.390
-4.390
-4.390
-4.390
-4.390
-4.390
-4.390
-4.390
-4.390
-4.390
-4.390
-4.390
-4.390
-4.390
-4.390
-4.390
-4.390
-4.390
-4.390
-4.390
-4.390
-4.390
-4.390
-4.390
-4.390
-4.390
-4.390
-4.390
-4.390
-4.390
-4.390
-4.390
-4.390
-4.390
-4.390
-4.390
-4.390
-4.390
-4.390
-4.390
-4.390
-4.390
-4.390
-4.390
-4.390
-4.390
-4.390
-4.390
-4.390
-4.390
-4.390
-4.390
-4.390
-4.390
-4.390
-4.390
-4.390
-4.390
-4.390
-4.390
-4.390
-4.390
-4.390
-4.390
-4.390
-4.390
-4.390
-4.390
-4.390
-4.390
-4.390
-4.390
-4.390
-4.390
-4.390
-4.390
-4.390
-4.390
-4.390
-4.390
-4.390
-4.390
-4.390
-4.390
-4.390
-4.389
-4.389
-4.389
-4.389
-4.389
-4.389
-4.389
-4.389
-4.389
-4.389
-4.389
-4.389
-4.389
-4.389
-4.389
-4.389
-4.389
-4.389
-4.389
-4.389
-4.389
-4.389
-4.389
-4.389
-4.389
-4.389
-4.389
-4.389
-4.389
-4.389
-4.389
-4.389
-4.389
-4.389
-4.389
-4.389
-4.389
-4.389
-4.389
-4.389
-4.389
-4.389
-4.389
-4.389
-4.389
-4.389
-4.389
-4.389
-4.389
-4.389
-4.389
-4.389
-4.389
-4.389
-4.389
-4.389
-4.389
-4.389
-4.389
-4.389
-4.389
-4.389
-4.389
-4.389
-4.389
-4.389
-4.389
-4.389
-4.389
-4.389
-4.389
-4.389
-4.389
-4.389
-4.389
-4.389
-4.389
-4.389
-4.389
-4.389
-4.389
-4.389
-4.389
-4.389
-4.389
-4.389
-4.389
-4.389
-4.389
-4.389
-4.389
-4.389
-4.389
-4.389
-4.389
-4.389
-4.389
-4.389
-4.389
-4.389
-4.389
-4.389
-4.389
-4.389
-4.389
-4.389
-4.389
-4.389
-4.389
-4.389
-4.389
-4.389
-4.389
-4.389
-4.389
-4.389
-4.389
-4.389
-4.389
-4.389
-4.389
-4.389
-4.389
-4.389
-4.389
-4.389
-4.389
-4.389
-4.389
-4.389
-4.389
-4.389
-4.389
-4.389
-4.389
-4.389
-4.389
-4.389
-4.389
-4.389
-4.389
-4.389
-4.389
-4.389
-4.389
-4.389
-4.389
-4.389
-4.389
-4.389
-4.389
-4.389
-4.389
-4.389
-4.389
-4.389
-4.389
-4.389
-4.389
-4.389
-4.389
-4.389
-4.389
-4.389
-4.389
-4.389
-4.389
-4.389
-4.389
-4.389
-4.389
-4.389
-4.389
-4.389
-4.389
-4.389
-4.389
-4.389
-4.389
-4.389
-4.389
-4.389
-4.389
-4.389
